Theta [deg.]  Phi   [deg.]  Abs(Dir.)[      ]   Abs(Theta)[      ]  Phase(Theta)[deg.]  Abs(Phi  )[      ]  Phase(Phi  )[deg.]  Ax.Ratio[      ]    
------------------------------------------------------------------------------------------------------------------------------------------------------
   0.000          90.000            2.546e-12           1.126e-12              49.437           1.420e-12             126.423           1.294e+00     
   1.000          90.000            5.912e-04           5.912e-04              96.881           1.446e-12             126.114           1.000e+02     
   2.000          90.000            2.361e-03           2.361e-03              96.870           1.472e-12             125.771           1.000e+02     
   3.000          90.000            5.297e-03           5.297e-03              96.849           1.499e-12             125.398           1.000e+02     
   4.000          90.000            9.380e-03           9.380e-03              96.820           1.525e-12             124.996           1.000e+02     
   5.000          90.000            1.458e-02           1.458e-02              96.783           1.552e-12             124.567           1.000e+02     
   6.000          90.000            2.087e-02           2.087e-02              96.737           1.579e-12             124.112           1.000e+02     
   7.000          90.000            2.819e-02           2.819e-02              96.682           1.607e-12             123.633           1.000e+02     
   8.000          90.000            3.650e-02           3.650e-02              96.617           1.635e-12             123.132           1.000e+02     
   9.000          90.000            4.574e-02           4.574e-02              96.544           1.663e-12             122.610           1.000e+02     
  10.000          90.000            5.584e-02           5.584e-02              96.460           1.691e-12             122.068           1.000e+02     
  11.000          90.000            6.673e-02           6.673e-02              96.367           1.719e-12             121.507           1.000e+02     
  12.000          90.000            7.832e-02           7.832e-02              96.263           1.747e-12             120.929           1.000e+02     
  13.000          90.000            9.051e-02           9.051e-02              96.148           1.775e-12             120.334           1.000e+02     
  14.000          90.000            1.032e-01           1.032e-01              96.021           1.803e-12             119.723           1.000e+02     
  15.000          90.000            1.163e-01           1.163e-01              95.883           1.830e-12             119.098           1.000e+02     
  16.000          90.000            1.297e-01           1.297e-01              95.731           1.857e-12             118.459           1.000e+02     
  17.000          90.000            1.433e-01           1.433e-01              95.565           1.884e-12             117.805           1.000e+02     
  18.000          90.000            1.569e-01           1.569e-01              95.385           1.910e-12             117.139           1.000e+02     
  19.000          90.000            1.704e-01           1.704e-01              95.189           1.934e-12             116.459           1.000e+02     
  20.000          90.000            1.837e-01           1.837e-01              94.976           1.958e-12             115.767           1.000e+02     
  21.000          90.000            1.967e-01           1.967e-01              94.745           1.980e-12             115.062           1.000e+02     
  22.000          90.000            2.091e-01           2.091e-01              94.494           2.001e-12             114.344           1.000e+02     
  23.000          90.000            2.209e-01           2.209e-01              94.221           2.020e-12             113.613           1.000e+02     
  24.000          90.000            2.319e-01           2.319e-01              93.925           2.037e-12             112.869           1.000e+02     
  25.000          90.000            2.419e-01           2.419e-01              93.603           2.053e-12             112.112           1.000e+02     
  26.000          90.000            2.509e-01           2.509e-01              93.254           2.065e-12             111.339           1.000e+02     
  27.000          90.000            2.587e-01           2.587e-01              92.872           2.075e-12             110.552           1.000e+02     
  28.000          90.000            2.652e-01           2.652e-01              92.457           2.083e-12             109.748           1.000e+02     
  29.000          90.000            2.702e-01           2.702e-01              92.003           2.087e-12             108.926           1.000e+02     
  30.000          90.000            2.736e-01           2.736e-01              91.506           2.088e-12             108.085           1.000e+02     
  31.000          90.000            2.755e-01           2.755e-01              90.960           2.086e-12             107.225           1.000e+02     
  32.000          90.000            2.756e-01           2.756e-01              90.359           2.079e-12             106.343           1.000e+02     
  33.000          90.000            2.740e-01           2.740e-01              89.697           2.070e-12             105.436           1.000e+02     
  34.000          90.000            2.705e-01           2.705e-01              88.963           2.056e-12             104.504           1.000e+02     
  35.000          90.000            2.653e-01           2.653e-01              88.147           2.038e-12             103.543           1.000e+02     
  36.000          90.000            2.584e-01           2.584e-01              87.237           2.015e-12             102.550           1.000e+02     
  37.000          90.000            2.497e-01           2.497e-01              86.217           1.989e-12             101.522           1.000e+02     
  38.000          90.000            2.394e-01           2.394e-01              85.069           1.958e-12             100.455           1.000e+02     
  39.000          90.000            2.277e-01           2.277e-01              83.768           1.922e-12              99.346           1.000e+02     
  40.000          90.000            2.146e-01           2.146e-01              82.286           1.883e-12              98.190           1.000e+02     
  41.000          90.000            2.004e-01           2.004e-01              80.587           1.839e-12              96.982           1.000e+02     
  42.000          90.000            1.854e-01           1.854e-01              78.625           1.791e-12              95.716           1.000e+02     
  43.000          90.000            1.698e-01           1.698e-01              76.344           1.740e-12              94.385           1.000e+02     
  44.000          90.000            1.538e-01           1.538e-01              73.670           1.685e-12              92.984           1.000e+02     
  45.000          90.000            1.380e-01           1.380e-01              70.511           1.626e-12              91.503           1.000e+02     
  46.000          90.000            1.227e-01           1.227e-01              66.753           1.565e-12              89.934           1.000e+02     
  47.000          90.000            1.083e-01           1.083e-01              62.255           1.501e-12              88.266           1.000e+02     
  48.000          90.000            9.532e-02           9.532e-02              56.857           1.435e-12              86.490           1.000e+02     
  49.000          90.000            8.421e-02           8.421e-02              50.396           1.368e-12              84.591           1.000e+02     
  50.000          90.000            7.551e-02           7.551e-02              42.752           1.300e-12              82.556           1.000e+02     
  51.000          90.000            6.976e-02           6.976e-02              33.928           1.231e-12              80.371           1.000e+02     
  52.000          90.000            6.750e-02           6.750e-02              24.147           1.163e-12              78.018           1.000e+02     
  53.000          90.000            6.928e-02           6.928e-02              13.892           1.096e-12              75.479           1.000e+02     
  54.000          90.000            7.565e-02           7.565e-02               3.802           1.031e-12              72.736           1.000e+02     
  55.000          90.000            8.715e-02           8.715e-02             354.461           9.686e-13              69.770           1.000e+02     
  56.000          90.000            1.043e-01           1.043e-01             346.224           9.092e-13              66.561           1.000e+02     
  57.000          90.000            1.276e-01           1.276e-01             339.192           8.537e-13              63.092           1.000e+02     
  58.000          90.000            1.574e-01           1.574e-01             333.295           8.030e-13              59.349           1.000e+02     
  59.000          90.000            1.942e-01           1.942e-01             328.383           7.576e-13              55.323           1.000e+02     
  60.000          90.000            2.382e-01           2.382e-01             324.290           7.181e-13              51.016           1.000e+02     
  61.000          90.000            2.898e-01           2.898e-01             320.867           6.853e-13              46.437           1.000e+02     
  62.000          90.000            3.492e-01           3.492e-01             317.984           6.596e-13              41.613           1.000e+02     
  63.000          90.000            4.163e-01           4.163e-01             315.540           6.413e-13              36.583           1.000e+02     
  64.000          90.000            4.912e-01           4.912e-01             313.452           6.310e-13              31.401           1.000e+02     
  65.000          90.000            5.738e-01           5.738e-01             311.656           6.288e-13              26.130           1.000e+02     
  66.000          90.000            6.639e-01           6.639e-01             310.101           6.349e-13              20.856           1.000e+02     
  67.000          90.000            7.611e-01           7.611e-01             308.747           6.494e-13              15.647           1.000e+02     
  68.000          90.000            8.650e-01           8.650e-01             307.561           6.721e-13              10.573           1.000e+02     
  69.000          90.000            9.751e-01           9.751e-01             306.518           7.029e-13               5.691           1.000e+02     
  70.000          90.000            1.091e+00           1.091e+00             305.597           7.415e-13               1.045           1.000e+02     
  71.000          90.000            1.211e+00           1.211e+00             304.781           7.874e-13             356.664           1.000e+02     
  72.000          90.000            1.335e+00           1.335e+00             304.055           8.400e-13             352.560           1.000e+02     
  73.000          90.000            1.462e+00           1.462e+00             303.409           8.988e-13             348.737           1.000e+02     
  74.000          90.000            1.591e+00           1.591e+00             302.833           9.630e-13             345.188           1.000e+02     
  75.000          90.000            1.720e+00           1.720e+00             302.318           1.032e-12             341.900           1.000e+02     
  76.000          90.000            1.849e+00           1.849e+00             301.859           1.104e-12             338.855           1.000e+02     
  77.000          90.000            1.977e+00           1.977e+00             301.450           1.178e-12             336.036           1.000e+02     
  78.000          90.000            2.101e+00           2.101e+00             301.085           1.255e-12             333.423           1.000e+02     
  79.000          90.000            2.221e+00           2.221e+00             300.762           1.331e-12             330.997           1.000e+02     
  80.000          90.000            2.336e+00           2.336e+00             300.476           1.407e-12             328.739           1.000e+02     
  81.000          90.000            2.444e+00           2.444e+00             300.224           1.481e-12             326.634           1.000e+02     
  82.000          90.000            2.544e+00           2.544e+00             300.005           1.551e-12             324.665           1.000e+02     
  83.000          90.000            2.636e+00           2.636e+00             299.816           1.618e-12             322.818           1.000e+02     
  84.000          90.000            2.717e+00           2.717e+00             299.655           1.680e-12             321.080           1.000e+02     
  85.000          90.000            2.788e+00           2.788e+00             299.521           1.735e-12             319.440           1.000e+02     
  86.000          90.000            2.846e+00           2.846e+00             299.413           1.784e-12             317.887           1.000e+02     
  87.000          90.000            2.893e+00           2.893e+00             299.330           1.825e-12             316.413           1.000e+02     
  88.000          90.000            2.927e+00           2.927e+00             299.271           1.857e-12             315.008           1.000e+02     
  89.000          90.000            2.947e+00           2.947e+00             299.236           1.881e-12             313.665           1.000e+02     
  90.000          90.000            2.954e+00           2.954e+00             299.224           1.895e-12             312.375           1.000e+02     
  91.000          90.000            2.947e+00           2.947e+00             299.236           1.900e-12             311.137           1.000e+02     
  92.000          90.000            2.927e+00           2.927e+00             299.271           1.895e-12             309.942           1.000e+02     
  93.000          90.000            2.893e+00           2.893e+00             299.330           1.881e-12             308.785           1.000e+02     
  94.000          90.000            2.846e+00           2.846e+00             299.413           1.857e-12             307.663           1.000e+02     
  95.000          90.000            2.788e+00           2.788e+00             299.521           1.823e-12             306.570           1.000e+02     
  96.000          90.000            2.717e+00           2.717e+00             299.655           1.781e-12             305.503           1.000e+02     
  97.000          90.000            2.636e+00           2.636e+00             299.816           1.731e-12             304.458           1.000e+02     
  98.000          90.000            2.544e+00           2.544e+00             300.005           1.672e-12             303.431           1.000e+02     
  99.000          90.000            2.444e+00           2.444e+00             300.224           1.607e-12             302.420           1.000e+02     
 100.000          90.000            2.336e+00           2.336e+00             300.476           1.536e-12             301.420           1.000e+02     
 101.000          90.000            2.221e+00           2.221e+00             300.762           1.459e-12             300.428           1.000e+02     
 102.000          90.000            2.101e+00           2.101e+00             301.086           1.378e-12             299.441           1.000e+02     
 103.000          90.000            1.977e+00           1.977e+00             301.450           1.293e-12             298.456           1.000e+02     
 104.000          90.000            1.849e+00           1.849e+00             301.860           1.206e-12             297.469           1.000e+02     
 105.000          90.000            1.720e+00           1.720e+00             302.319           1.117e-12             296.477           1.000e+02     
 106.000          90.000            1.591e+00           1.591e+00             302.833           1.028e-12             295.474           1.000e+02     
 107.000          90.000            1.462e+00           1.462e+00             303.409           9.388e-13             294.458           1.000e+02     
 108.000          90.000            1.335e+00           1.335e+00             304.056           8.507e-13             293.421           1.000e+02     
 109.000          90.000            1.211e+00           1.211e+00             304.781           7.645e-13             292.359           1.000e+02     
 110.000          90.000            1.091e+00           1.091e+00             305.598           6.810e-13             291.265           1.000e+02     
 111.000          90.000            9.751e-01           9.751e-01             306.519           6.008e-13             290.128           1.000e+02     
 112.000          90.000            8.650e-01           8.650e-01             307.562           5.245e-13             288.940           1.000e+02     
 113.000          90.000            7.611e-01           7.611e-01             308.748           4.527e-13             287.685           1.000e+02     
 114.000          90.000            6.639e-01           6.639e-01             310.103           3.858e-13             286.347           1.000e+02     
 115.000          90.000            5.738e-01           5.738e-01             311.658           3.241e-13             284.903           1.000e+02     
 116.000          90.000            4.912e-01           4.912e-01             313.454           2.678e-13             283.320           1.000e+02     
 117.000          90.000            4.163e-01           4.163e-01             315.542           2.172e-13             281.557           1.000e+02     
 118.000          90.000            3.492e-01           3.492e-01             317.987           1.723e-13             279.551           1.000e+02     
 119.000          90.000            2.899e-01           2.899e-01             320.869           1.332e-13             277.209           1.000e+02     
 120.000          90.000            2.383e-01           2.383e-01             324.293           9.976e-14             274.390           1.000e+02     
 121.000          90.000            1.942e-01           1.942e-01             328.386           7.186e-14             270.861           1.000e+02     
 122.000          90.000            1.574e-01           1.574e-01             333.298           4.932e-14             266.226           1.000e+02     
 123.000          90.000            1.276e-01           1.276e-01             339.196           3.191e-14             259.759           1.000e+02     
 124.000          90.000            1.043e-01           1.043e-01             346.228           1.933e-14             250.074           1.000e+02     
 125.000          90.000            8.717e-02           8.717e-02             354.465           1.127e-14             234.595           1.000e+02     
 126.000          90.000            7.567e-02           7.567e-02               3.805           7.375e-15             210.320           1.000e+02     
 127.000          90.000            6.929e-02           6.929e-02              13.894           7.275e-15             180.872           1.000e+02     
 128.000          90.000            6.751e-02           6.751e-02              24.148           1.058e-14             157.401           1.000e+02     
 129.000          90.000            6.978e-02           6.978e-02              33.927           1.691e-14             142.563           1.000e+02     
 130.000          90.000            7.553e-02           7.553e-02              42.750           2.586e-14             133.230           1.000e+02     
 131.000          90.000            8.423e-02           8.423e-02              50.393           3.705e-14             126.947           1.000e+02     
 132.000          90.000            9.534e-02           9.534e-02              56.854           5.009e-14             122.404           1.000e+02     
 133.000          90.000            1.083e-01           1.083e-01              62.251           6.463e-14             118.918           1.000e+02     
 134.000          90.000            1.227e-01           1.227e-01              66.749           8.031e-14             116.109           1.000e+02     
 135.000          90.000            1.381e-01           1.381e-01              70.507           9.681e-14             113.758           1.000e+02     
 136.000          90.000            1.539e-01           1.539e-01              73.666           1.138e-13             111.726           1.000e+02     
 137.000          90.000            1.698e-01           1.698e-01              76.340           1.311e-13             109.925           1.000e+02     
 138.000          90.000            1.854e-01           1.854e-01              78.621           1.484e-13             108.295           1.000e+02     
 139.000          90.000            2.005e-01           2.005e-01              80.583           1.654e-13             106.794           1.000e+02     
 140.000          90.000            2.146e-01           2.146e-01              82.282           1.820e-13             105.392           1.000e+02     
 141.000          90.000            2.277e-01           2.277e-01              83.764           1.981e-13             104.066           1.000e+02     
 142.000          90.000            2.395e-01           2.395e-01              85.065           2.134e-13             102.800           1.000e+02     
 143.000          90.000            2.497e-01           2.497e-01              86.213           2.279e-13             101.580           1.000e+02     
 144.000          90.000            2.584e-01           2.584e-01              87.233           2.415e-13             100.396           1.000e+02     
 145.000          90.000            2.653e-01           2.653e-01              88.143           2.541e-13              99.240           1.000e+02     
 146.000          90.000            2.706e-01           2.706e-01              88.959           2.656e-13              98.105           1.000e+02     
 147.000          90.000            2.740e-01           2.740e-01              89.693           2.761e-13              96.987           1.000e+02     
 148.000          90.000            2.756e-01           2.756e-01              90.355           2.856e-13              95.880           1.000e+02     
 149.000          90.000            2.755e-01           2.755e-01              90.956           2.940e-13              94.781           1.000e+02     
 150.000          90.000            2.737e-01           2.737e-01              91.502           3.013e-13              93.686           1.000e+02     
 151.000          90.000            2.702e-01           2.702e-01              91.999           3.076e-13              92.587           1.000e+02     
 152.000          90.000            2.652e-01           2.652e-01              92.453           3.130e-13              91.494           1.000e+02     
 153.000          90.000            2.587e-01           2.587e-01              92.869           3.174e-13              90.400           1.000e+02     
 154.000          90.000            2.509e-01           2.509e-01              93.250           3.210e-13              89.303           1.000e+02     
 155.000          90.000            2.420e-01           2.420e-01              93.600           3.238e-13              88.202           1.000e+02     
 156.000          90.000            2.319e-01           2.319e-01              93.921           3.259e-13              87.096           1.000e+02     
 157.000          90.000            2.209e-01           2.209e-01              94.217           3.272e-13              85.984           1.000e+02     
 158.000          90.000            2.091e-01           2.091e-01              94.490           3.280e-13              84.866           1.000e+02     
 159.000          90.000            1.967e-01           1.967e-01              94.741           3.282e-13              83.743           1.000e+02     
 160.000          90.000            1.837e-01           1.837e-01              94.972           3.279e-13              82.613           1.000e+02     
 161.000          90.000            1.704e-01           1.704e-01              95.185           3.272e-13              81.478           1.000e+02     
 162.000          90.000            1.569e-01           1.569e-01              95.381           3.262e-13              80.338           1.000e+02     
 163.000          90.000            1.433e-01           1.433e-01              95.561           3.248e-13              79.193           1.000e+02     
 164.000          90.000            1.297e-01           1.297e-01              95.727           3.231e-13              78.044           1.000e+02     
 165.000          90.000            1.163e-01           1.163e-01              95.879           3.212e-13              76.893           1.000e+02     
 166.000          90.000            1.032e-01           1.032e-01              96.018           3.192e-13              75.741           1.000e+02     
 167.000          90.000            9.051e-02           9.051e-02              96.144           3.170e-13              74.588           1.000e+02     
 168.000          90.000            7.832e-02           7.832e-02              96.259           3.146e-13              73.437           1.000e+02     
 169.000          90.000            6.673e-02           6.673e-02              96.363           3.122e-13              72.288           1.000e+02     
 170.000          90.000            5.585e-02           5.585e-02              96.457           3.097e-13              71.143           1.000e+02     
 171.000          90.000            4.575e-02           4.575e-02              96.540           3.072e-13              70.003           1.000e+02     
 172.000          90.000            3.650e-02           3.650e-02              96.614           3.046e-13              68.871           1.000e+02     
 173.000          90.000            2.819e-02           2.819e-02              96.678           3.020e-13              67.747           1.000e+02     
 174.000          90.000            2.087e-02           2.087e-02              96.733           2.993e-13              66.633           1.000e+02     
 175.000          90.000            1.458e-02           1.458e-02              96.779           2.967e-13              65.531           1.000e+02     
 176.000          90.000            9.380e-03           9.380e-03              96.817           2.940e-13              64.441           1.000e+02     
 177.000          90.000            5.297e-03           5.297e-03              96.846           2.912e-13              63.365           1.000e+02     
 178.000          90.000            2.361e-03           2.361e-03              96.866           2.884e-13              62.303           1.000e+02     
 179.000          90.000            5.912e-04           5.912e-04              96.878           2.856e-13              61.258           1.000e+02     
 180.000          90.000            1.035e-12           7.521e-13             330.430           2.827e-13              60.230           1.631e+00     
